IESNA:LM-63-2002
[TEST]826715    
[TESTLAB]UL Verification Services                            
[ISSUEDATE]4/26/2020
[MANUFAC]COOPER CROUSE-HINDS                                                         
[LUMCAT]VMVL-5-R3-UNV1                                                                   
[LUMINAIRE]N/A                                                                             
[LAMP]N/A 
[OTHER]120.0V 0.3487A 43W  PF=0.996                                                 
TILT=NONE
1 -1 1.055212 37 17 1 1 -0.58 -0.58 0
1 1 43
0 2.5 5 7.5 10 12.5 15 17.5 20 22.5 25 27.5 30 32.5 35 37.5 40 42.5 45 47.5 50 52.5 55 57.5 60 62.5 65 67.5 70 72.5 75 77.5 80 82.5 85 87.5 90
0 22.5 45 67.5 90 112.5 135 157.5 180 202.5 225 247.5 270 292.5 315 337.5 360
1020.40 1101.00 1164.00 1230.60 1276.80 1293.20 1290.80 1306.00 1317.40 1334.20 1365.50 1404.80 1431.50 1460.00 1461.80 1454.30 1453.00 1446.30 1404.40 1343.00 1254.90 1189.60 1128.00 1051.70 958.70 834.30 677.20 510.10 354.10 296.90 267.20 246.70 234.60 
189.80 148.90 93.50 33.70
1020.40 1095.30 1156.90 1219.60 1270.20 1296.50 1295.50 1304.00 1316.50 1324.00 1345.00 1370.10 1397.40 1417.10 1432.90 1438.00 1431.80 1427.60 1422.80 1389.00 1326.30 1224.20 1147.10 1081.90 985.50 882.90 744.10 577.20 405.50 306.70 264.70 240.90 211.90 
175.20 135.50 88.70 31.40
1020.40 1080.10 1135.70 1182.00 1235.30 1278.10 1302.90 1310.70 1319.60 1337.70 1361.40 1387.70 1424.50 1464.00 1498.50 1537.30 1579.70 1581.60 1564.60 1547.00 1537.60 1509.90 1435.30 1310.10 1187.20 1081.30 967.90 804.60 599.40 378.00 242.40 190.00 
163.80 135.70 96.40 43.60 20.80
1020.40 1048.80 1085.30 1121.60 1153.40 1181.90 1216.80 1259.30 1300.00 1341.80 1379.40 1408.70 1435.10 1460.90 1485.20 1512.80 1538.20 1569.00 1605.90 1660.90 1713.60 1758.30 1756.20 1740.00 1730.70 1732.10 1714.00 1607.40 1378.10 1128.10 767.30 356.30 
205.60 117.10 70.90 30.20 20.60
1020.40 1024.40 1028.60 1035.30 1043.60 1050.80 1059.30 1071.20 1085.20 1097.20 1111.20 1120.90 1132.40 1143.40 1154.40 1163.90 1177.70 1202.80 1242.20 1296.70 1369.20 1458.10 1535.40 1597.10 1672.60 1724.20 1723.80 1664.20 1498.50 1092.40 429.50 253.90 
135.20 87.20 38.90 20.00 16.10
1020.40 989.70 970.20 953.30 945.60 943.60 942.30 942.00 936.30 924.90 900.60 858.20 806.10 756.30 706.90 658.30 617.60 587.20 568.50 560.90 560.60 566.10 575.90 584.60 594.70 594.00 553.40 480.30 412.00 342.20 251.20 148.50 107.50 69.30 32.50 12.40 10.20
1020.40 971.70 940.30 929.50 910.30 873.30 847.40 831.10 807.40 755.20 664.70 551.60 454.60 398.50 368.20 347.40 333.30 321.70 311.70 301.00 292.30 287.40 290.70 297.80 304.70 299.90 269.50 219.60 162.10 120.50 94.80 81.20 74.50 60.10 32.20 9.80 5.80
1020.40 955.20 923.40 900.30 846.10 815.90 799.50 769.50 698.00 595.20 498.00 436.90 404.30 386.00 372.90 366.80 366.20 366.20 363.60 358.00 347.40 334.80 331.00 326.70 321.00 296.90 248.60 195.80 144.50 119.60 107.90 95.30 79.30 60.00 36.70 10.60 4.40
1020.40 950.50 919.70 882.60 828.40 803.40 782.50 734.70 651.00 550.30 465.50 412.30 387.00 375.00 370.90 371.00 376.60 375.10 378.60 377.20 365.20 350.30 351.60 350.60 342.50 314.30 257.60 208.80 151.90 123.70 105.60 90.90 70.20 53.30 28.20 9.20 6.70
1020.40 955.20 923.40 900.30 846.10 815.90 799.50 769.50 698.00 595.20 498.00 436.90 404.30 386.00 372.90 366.80 366.20 366.20 363.60 358.00 347.40 334.80 331.00 326.70 321.00 296.90 248.60 195.80 144.50 119.60 107.90 95.30 79.30 60.00 36.70 10.60 4.40
1020.40 971.70 940.30 929.50 910.30 873.30 847.40 831.10 807.40 755.20 664.70 551.60 454.60 398.50 368.20 347.40 333.30 321.70 311.70 301.00 292.30 287.40 290.70 297.80 304.70 299.90 269.50 219.60 162.10 120.50 94.80 81.20 74.50 60.10 32.20 9.80 5.80
1020.40 989.70 970.20 953.30 945.60 943.60 942.30 942.00 936.30 924.90 900.60 858.20 806.10 756.30 706.90 658.30 617.60 587.20 568.50 560.90 560.60 566.10 575.90 584.60 594.70 594.00 553.40 480.30 412.00 342.20 251.20 148.50 107.50 69.30 32.50 12.40 10.20
1020.40 1024.40 1028.60 1035.30 1043.60 1050.80 1059.30 1071.20 1085.20 1097.20 1111.20 1120.90 1132.40 1143.40 1154.40 1163.90 1177.70 1202.80 1242.20 1296.70 1369.20 1458.10 1535.40 1597.10 1672.60 1724.20 1723.80 1664.20 1498.50 1092.40 429.50 253.90 
135.20 87.20 38.90 20.00 16.10
1020.40 1048.80 1085.30 1121.60 1153.40 1181.90 1216.80 1259.30 1300.00 1341.80 1379.40 1408.70 1435.10 1460.90 1485.20 1512.80 1538.20 1569.00 1605.90 1660.90 1713.60 1758.30 1756.20 1740.00 1730.70 1732.10 1714.00 1607.40 1378.10 1128.10 767.30 356.30 
205.60 117.10 70.90 30.20 20.60
1020.40 1080.10 1135.70 1182.00 1235.30 1278.10 1302.90 1310.70 1319.60 1337.70 1361.40 1387.70 1424.50 1464.00 1498.50 1537.30 1579.70 1581.60 1564.60 1547.00 1537.60 1509.90 1435.30 1310.10 1187.20 1081.30 967.90 804.60 599.40 378.00 242.40 190.00 
163.80 135.70 96.40 43.60 20.80
1020.40 1095.30 1156.90 1219.60 1270.20 1296.50 1295.50 1304.00 1316.50 1324.00 1345.00 1370.10 1397.40 1417.10 1432.90 1438.00 1431.80 1427.60 1422.80 1389.00 1326.30 1224.20 1147.10 1081.90 985.50 882.90 744.10 577.20 405.50 306.70 264.70 240.90 211.90 
175.20 135.50 88.70 31.40
1020.40 1101.00 1164.00 1230.60 1276.80 1293.20 1290.80 1306.00 1317.40 1334.20 1365.50 1404.80 1431.50 1460.00 1461.80 1454.30 1453.00 1446.30 1404.40 1343.00 1254.90 1189.60 1128.00 1051.70 958.70 834.30 677.20 510.10 354.10 296.90 267.20 246.70 234.60 
189.80 148.90 93.50 33.70
